# Motorposition(Schritte)	Photospannung(V)
17471	0.0474518
17522	0.0500006
17574	0.0500006
17625	0.0525493
17676	0.0576468
17727	0.0576468
17778	0.0500006
17830	0.0525493
17881	0.0525493
17932	0.0474518
17983	0.0474518
18035	0.0525493
18086	0.0423543
18137	0.0270619
18188	0.0474518
18239	0.0449031
18290	0.0423543
18341	0.055098
18392	0.0576468
18444	0.0805855
18495	0.0831342
18546	0.116268
18597	0.121365
18648	0.169791
18699	0.200376
18750	0.241156
18801	0.284485
18852	0.31507
18903	0.327813
18955	0.350752
19006	0.383886
19057	0.419568
19108	0.480738
19159	0.559749
19210	0.636211
19261	0.822269
19312	0.875793
19363	0.911475
19414	0.939512
19465	0.944609
19516	0.977743
19567	1.00833
19618	1.05421
19669	1.10263
19720	1.1638
19772	1.18419
19823	1.20458
19874	1.18419
19925	1.14596
19976	1.16635
20027	1.174
20079	1.1638
20130	1.17909
20181	1.14596
20232	1.08989
20283	1.02617
20334	0.949707
20385	0.857952
20436	0.778941
20487	0.72032
20538	0.676991
20589	0.651504
20641	0.643858
20692	0.641309
20743	0.600529
20794	0.559749
20845	0.465446
20897	0.386435
20948	0.302326
20999	0.236059
21050	0.197828
21101	0.17234
21152	0.144304
21203	0.149402
21254	0.15195
21306	0.123914
21357	0.113719
21408	0.0882317
21459	0.0729392
21510	0.0576468
21561	0.0423543
21613	0.0423543
21664	0.0372568
21715	0.0423543
21766	0.0398056
21817	0.0449031
21869	0.0372568
21920	0.0372568
21971	0.0449031
22022	0.0474518
22073	0.055098
22125	0.0423543
22176	0.055098
22228	0.0474518
22279	0.0474518
22330	0.0423543
22381	0.0449031
22432	0.0500006
22483	0.0474518
22535	0.0474518
22586	0.0449031
